#   1 NUMBER                 Running object number                                     
#   2 FLUX_ISO               Isophotal flux                                             [count]
#   3 MAG_ISO                Isophotal magnitude                                        [mag]
#   4 KRON_RADIUS            Kron apertures in units of A or B                         
#   5 PETRO_RADIUS           Petrosian apertures in units of A or B                    
#   6 ISOAREA_IMAGE          Isophotal area above Analysis threshold                    [pixel**2]
#   7 ISOAREAF_IMAGE         Isophotal area (filtered) above Detection threshold        [pixel**2]
#   8 X_IMAGE                Object position along x                                    [pixel]
#   9 Y_IMAGE                Object position along y                                    [pixel]
#  10 A_IMAGE                Profile RMS along major axis                               [pixel]
#  11 B_IMAGE                Profile RMS along minor axis                               [pixel]
#  12 THETA_IMAGE            Position angle (CCW/x)                                     [deg]
#  13 BACKGROUND             Background at centroid position                            [count]
         1 8.290898e+09 -24.7965  3.50  4.62      1147      1152    193.2154     16.5663    39.211     1.066  -0.00       2302.5
         2 7.039329e+09 -24.6188  3.50  3.96       676       695    193.2132      9.7024    39.214     0.646   0.00         2296
         3 1.092077e+09 -22.5956  0.00  0.00        68        68    234.6530    229.0000    21.668     0.725  -0.13       2299.8
         4 9.314595e+08 -22.4229  3.50  4.62       442       442    193.2741    223.8670    39.130     0.340  -0.00       2347.5
         5  8.10961e+09 -24.7725  3.50  4.62      1601      1829    193.2163    214.7748    39.208     1.596   0.00       2355.5
         6  3.97138e+09 -23.9974  3.50  4.62       694      1124    193.2231    202.9454    39.200     0.851   0.00       2340.5
         7 7.360541e+08 -22.1673  3.50  4.62       427       427    193.3771    198.8805    39.000     0.324  -0.00       2345.5
         8 1.700072e+09 -23.0762  3.50  3.96       230       454    193.2360    190.7817    39.183     0.413  -0.00       2334.5
         9 4.289642e+09 -24.0811  3.50  3.50       919      1362    193.2303    182.8444    39.191     1.448   0.00       2331.5
        10 7.007286e+08 -22.1139  3.50  4.62       227       227    193.2372    170.0000    39.177     0.289   0.00         2320
        11 1.060286e+09 -22.5636  0.00  0.00       576       584    231.3908    165.0000    65.036     0.622   0.52       2329.5
        12 3.946562e+08 -21.4905  3.50  0.00        99        99    236.5669    163.0000    29.542     0.512  -0.10         2325
        13 5.807886e+09 -24.4100  3.50  3.96       466       694    193.2137    157.3003    39.213     0.662  -0.00         2319
        14 6.049998e+09 -24.4544  3.50  0.00       918       918    193.2209    151.5563    39.204     0.788  -0.00         2323
        15 5.524546e+07 -19.3557  0.00  4.62       215       217    193.4245    144.0000    38.934     0.289   0.00         2322
        16 5.690895e+09 -24.3880  3.50  4.62      1133      1136    193.2207    139.8614    39.204     0.948  -0.00         2311
        17 1.090722e+10 -25.0943  3.50  3.96      1155      1383    193.2118    126.8886    39.216     1.117   0.00         2316
        18 9.238735e+08 -22.4140  3.50  4.62       226       226    193.2642    120.0000    39.149     0.289   0.00       2317.5
        19 2.047184e+09 -23.2779  3.50  4.62       210       210    227.6008    116.0755    24.185     0.837  -0.25         2319
        20 1.182186e+10 -25.1817  3.50  3.50      2094      2097    207.5134    110.3854    44.163     1.881  -0.71         2311
        21  3.02577e+09 -23.7021  3.50  0.00       460       460    193.2137    105.3691    39.210     0.483   0.00       2309.5
        22 3.483758e+09 -23.8551  3.50  4.62       462       686    193.2245    101.3928    39.199     0.632  -0.00         2309
        23 2.253699e+09 -23.3822  3.50  4.62       676       683    193.2312     95.0389    39.188     0.646  -0.00         2311
        24 8.304777e+09 -24.7983  3.50  4.62       928      1154    193.2156     87.7300    39.211     1.065   0.00         2304
        25 3.591375e+09 -23.8882  3.50  0.00       690       690    193.2208     67.9422    39.203     0.737   0.00       2310.5
        26 1.338265e+10 -25.3164  3.50  3.96      2327      2545    207.4708     60.5118    45.587     1.860   0.65         2314
        27 7.529476e+09 -24.6919  3.50  5.94      1120      1120    217.5112     53.9758    37.241     1.979   0.73         2304
        28 1.357764e+09 -22.8321  3.50  4.62       669       679    193.2463     42.9792    39.167     0.681  -0.00         2305
        29 6.106527e+09 -24.4645  3.50  5.28       696       696    193.2138     36.9552    39.213     0.738   0.00       2296.5
        30 4.712246e+08 -21.6831  3.50  0.00       189       189    194.8926     27.0000    37.158     0.289   0.00         2308
        31 4.244518e+08 -21.5696  3.50  0.00       209       209    193.6779     23.0000    38.605     0.289   0.00         2297
        32 6.171186e+09 -24.4759  0.00  0.00      1308      1313    224.5876    231.5714    52.823     1.434   0.70     2300.742
